function [spectrum, totPower, wavel_nom] = fietje_1020( wavel )
% [spectrum, totPower, wavel_nom] = fietje( wavel )
% Provides power density spectrum [mW/nm] of Fietje 1020nm LED, 3mm
% package.
%
% Inputs
% wavel - desired wavelengths (nm)
%
% Outputs
% spectrum - matrix containing power spectral density (uW/nm) of LED.
% Values are interpolated for the wavelengths provided in the input. Values outside
% the originally measured range are extrapolated to zero.
%
% totPower - irradiance integrated over wavel wavelengths (mW).
%
% wavel_nom - nominal wavelengths over which LED spectrum is experimentally
% measured (nm).
%
% See also
% PD_resp, solarIrr, sabic, getLed, fietje
%
% P. Silveira, Feb. 2016
% BSX Proprietary

% Measured values originally available at
% \Google Drive\Tech_RD\Sensor\Development\Release to Market
% Product\LED_characterization\Fietje 1020nm 3mm package
% Example:
% filen = dir('*.txt');
% [spectrum, wavel] = readOO({filen.name});
% Confirmed that all LEDs have readings at exactly the same wavelengths
% (from 632.364nm to 1123.16nm).

mArea = 1.19459060652752e-4; % = pi*(3900e-4/2)^2 * 1e-3;  Area of cosine corrector (cm^2) divided by 1000 to convert from uW to mW. Cosine corrector diameter = 3900um = 0.39cm

wavel_nom = [632.364000
    632.830000
    633.295000
    633.761000
    634.227000
    634.692000
    635.158000
    635.624000
    636.090000
    636.556000
    637.021000
    637.487000
    637.953000
    638.419000
    638.885000
    639.351000
    639.817000
    640.283000
    640.749000
    641.215000
    641.681000
    642.147000
    642.613000
    643.080000
    643.546000
    644.012000
    644.478000
    644.945000
    645.411000
    645.877000
    646.344000
    646.810000
    647.277000
    647.743000
    648.209000
    648.676000
    649.143000
    649.609000
    650.076000
    650.542000
    651.009000
    651.476000
    651.942000
    652.409000
    652.876000
    653.343000
    653.810000
    654.276000
    654.743000
    655.210000
    655.677000
    656.144000
    656.611000
    657.078000
    657.545000
    658.012000
    658.479000
    658.946000
    659.414000
    659.881000
    660.348000
    660.815000
    661.283000
    661.750000
    662.217000
    662.684000
    663.152000
    663.619000
    664.087000
    664.554000
    665.022000
    665.489000
    665.957000
    666.424000
    666.892000
    667.360000
    667.827000
    668.295000
    668.763000
    669.230000
    669.698000
    670.166000
    670.634000
    671.102000
    671.569000
    672.037000
    672.505000
    672.973000
    673.441000
    673.909000
    674.377000
    674.845000
    675.314000
    675.782000
    676.250000
    676.718000
    677.186000
    677.654000
    678.123000
    678.591000
    679.059000
    679.528000
    679.996000
    680.464000
    680.933000
    681.401000
    681.870000
    682.338000
    682.807000
    683.275000
    683.744000
    684.213000
    684.681000
    685.150000
    685.619000
    686.088000
    686.556000
    687.025000
    687.494000
    687.963000
    688.432000
    688.901000
    689.369000
    689.838000
    690.307000
    690.776000
    691.245000
    691.715000
    692.184000
    692.653000
    693.122000
    693.591000
    694.060000
    694.530000
    694.999000
    695.468000
    695.937000
    696.407000
    696.876000
    697.346000
    697.815000
    698.285000
    698.754000
    699.224000
    699.693000
    700.163000
    700.632000
    701.102000
    701.572000
    702.041000
    702.511000
    702.981000
    703.450000
    703.920000
    704.390000
    704.860000
    705.330000
    705.800000
    706.270000
    706.740000
    707.210000
    707.680000
    708.150000
    708.620000
    709.090000
    709.560000
    710.030000
    710.500000
    710.970000
    711.441000
    711.911000
    712.381000
    712.852000
    713.322000
    713.792000
    714.263000
    714.733000
    715.204000
    715.674000
    716.145000
    716.615000
    717.086000
    717.556000
    718.027000
    718.498000
    718.968000
    719.439000
    719.910000
    720.381000
    720.851000
    721.322000
    721.793000
    722.264000
    722.735000
    723.206000
    723.677000
    724.148000
    724.619000
    725.090000
    725.561000
    726.032000
    726.503000
    726.974000
    727.445000
    727.917000
    728.388000
    728.859000
    729.330000
    729.802000
    730.273000
    730.744000
    731.216000
    731.687000
    732.159000
    732.630000
    733.102000
    733.573000
    734.045000
    734.516000
    734.988000
    735.460000
    735.931000
    736.403000
    736.875000
    737.347000
    737.818000
    738.290000
    738.762000
    739.234000
    739.706000
    740.178000
    740.650000
    741.122000
    741.594000
    742.066000
    742.538000
    743.010000
    743.482000
    743.954000
    744.426000
    744.899000
    745.371000
    745.843000
    746.315000
    746.788000
    747.260000
    747.733000
    748.205000
    748.677000
    749.150000
    749.622000
    750.095000
    750.567000
    751.040000
    751.513000
    751.985000
    752.458000
    752.930000
    753.403000
    753.876000
    754.349000
    754.822000
    755.294000
    755.767000
    756.240000
    756.713000
    757.186000
    757.659000
    758.132000
    758.605000
    759.078000
    759.551000
    760.024000
    760.497000
    760.970000
    761.444000
    761.917000
    762.390000
    762.863000
    763.337000
    763.810000
    764.283000
    764.757000
    765.230000
    765.703000
    766.177000
    766.650000
    767.124000
    767.597000
    768.071000
    768.545000
    769.018000
    769.492000
    769.966000
    770.439000
    770.913000
    771.387000
    771.861000
    772.334000
    772.808000
    773.282000
    773.756000
    774.230000
    774.704000
    775.178000
    775.652000
    776.126000
    776.600000
    777.074000
    777.548000
    778.022000
    778.497000
    778.971000
    779.445000
    779.919000
    780.394000
    780.868000
    781.342000
    781.817000
    782.291000
    782.765000
    783.240000
    783.714000
    784.189000
    784.663000
    785.138000
    785.613000
    786.087000
    786.562000
    787.037000
    787.511000
    787.986000
    788.461000
    788.936000
    789.410000
    789.885000
    790.360000
    790.835000
    791.310000
    791.785000
    792.260000
    792.735000
    793.210000
    793.685000
    794.160000
    794.635000
    795.110000
    795.586000
    796.061000
    796.536000
    797.011000
    797.487000
    797.962000
    798.437000
    798.913000
    799.388000
    799.863000
    800.339000
    800.814000
    801.290000
    801.765000
    802.241000
    802.717000
    803.192000
    803.668000
    804.144000
    804.619000
    805.095000
    805.571000
    806.047000
    806.522000
    806.998000
    807.474000
    807.950000
    808.426000
    808.902000
    809.378000
    809.854000
    810.330000
    810.806000
    811.282000
    811.758000
    812.234000
    812.711000
    813.187000
    813.663000
    814.139000
    814.616000
    815.092000
    815.568000
    816.045000
    816.521000
    816.997000
    817.474000
    817.950000
    818.427000
    818.903000
    819.380000
    819.857000
    820.333000
    820.810000
    821.287000
    821.763000
    822.240000
    822.717000
    823.194000
    823.670000
    824.147000
    824.624000
    825.101000
    825.578000
    826.055000
    826.532000
    827.009000
    827.486000
    827.963000
    828.440000
    828.917000
    829.394000
    829.872000
    830.349000
    830.826000
    831.303000
    831.781000
    832.258000
    832.735000
    833.213000
    833.690000
    834.167000
    834.645000
    835.122000
    835.600000
    836.077000
    836.555000
    837.033000
    837.510000
    837.988000
    838.466000
    838.943000
    839.421000
    839.899000
    840.377000
    840.854000
    841.332000
    841.810000
    842.288000
    842.766000
    843.244000
    843.722000
    844.200000
    844.678000
    845.156000
    845.634000
    846.112000
    846.590000
    847.068000
    847.547000
    848.025000
    848.503000
    848.981000
    849.460000
    849.938000
    850.417000
    850.895000
    851.373000
    851.852000
    852.330000
    852.809000
    853.287000
    853.766000
    854.244000
    854.723000
    855.202000
    855.680000
    856.159000
    856.638000
    857.117000
    857.595000
    858.074000
    858.553000
    859.032000
    859.511000
    859.990000
    860.469000
    860.948000
    861.427000
    861.906000
    862.385000
    862.864000
    863.343000
    863.822000
    864.301000
    864.781000
    865.260000
    865.739000
    866.218000
    866.698000
    867.177000
    867.656000
    868.136000
    868.615000
    869.095000
    869.574000
    870.054000
    870.533000
    871.013000
    871.492000
    871.972000
    872.452000
    872.931000
    873.411000
    873.891000
    874.371000
    874.850000
    875.330000
    875.810000
    876.290000
    876.770000
    877.250000
    877.730000
    878.210000
    878.690000
    879.170000
    879.650000
    880.130000
    880.610000
    881.090000
    881.570000
    882.051000
    882.531000
    883.011000
    883.491000
    883.972000
    884.452000
    884.932000
    885.413000
    885.893000
    886.374000
    886.854000
    887.335000
    887.815000
    888.296000
    888.776000
    889.257000
    889.738000
    890.218000
    890.699000
    891.180000
    891.660000
    892.141000
    892.622000
    893.103000
    893.584000
    894.065000
    894.546000
    895.027000
    895.508000
    895.989000
    896.470000
    896.951000
    897.432000
    897.913000
    898.394000
    898.875000
    899.356000
    899.838000
    900.319000
    900.800000
    901.281000
    901.763000
    902.244000
    902.726000
    903.207000
    903.688000
    904.170000
    904.651000
    905.133000
    905.615000
    906.096000
    906.578000
    907.059000
    907.541000
    908.023000
    908.505000
    908.986000
    909.468000
    909.950000
    910.432000
    910.914000
    911.396000
    911.877000
    912.359000
    912.841000
    913.323000
    913.805000
    914.287000
    914.770000
    915.252000
    915.734000
    916.216000
    916.698000
    917.180000
    917.663000
    918.145000
    918.627000
    919.110000
    919.592000
    920.074000
    920.557000
    921.039000
    921.522000
    922.004000
    922.487000
    922.969000
    923.452000
    923.935000
    924.417000
    924.900000
    925.383000
    925.865000
    926.348000
    926.831000
    927.314000
    927.797000
    928.279000
    928.762000
    929.245000
    929.728000
    930.211000
    930.694000
    931.177000
    931.660000
    932.143000
    932.627000
    933.110000
    933.593000
    934.076000
    934.559000
    935.043000
    935.526000
    936.009000
    936.492000
    936.976000
    937.459000
    937.943000
    938.426000
    938.910000
    939.393000
    939.877000
    940.360000
    940.844000
    941.327000
    941.811000
    942.295000
    942.778000
    943.262000
    943.746000
    944.230000
    944.714000
    945.197000
    945.681000
    946.165000
    946.649000
    947.133000
    947.617000
    948.101000
    948.585000
    949.069000
    949.553000
    950.037000
    950.521000
    951.006000
    951.490000
    951.974000
    952.458000
    952.943000
    953.427000
    953.911000
    954.396000
    954.880000
    955.364000
    955.849000
    956.333000
    956.818000
    957.302000
    957.787000
    958.272000
    958.756000
    959.241000
    959.726000
    960.210000
    960.695000
    961.180000
    961.665000
    962.149000
    962.634000
    963.119000
    963.604000
    964.089000
    964.574000
    965.059000
    965.544000
    966.029000
    966.514000
    966.999000
    967.484000
    967.969000
    968.454000
    968.940000
    969.425000
    969.910000
    970.395000
    970.881000
    971.366000
    971.851000
    972.337000
    972.822000
    973.308000
    973.793000
    974.279000
    974.764000
    975.250000
    975.735000
    976.221000
    976.707000
    977.192000
    977.678000
    978.164000
    978.650000
    979.135000
    979.621000
    980.107000
    980.593000
    981.079000
    981.565000
    982.051000
    982.537000
    983.023000
    983.509000
    983.995000
    984.481000
    984.967000
    985.453000
    985.939000
    986.425000
    986.912000
    987.398000
    987.884000
    988.370000
    988.857000
    989.343000
    989.830000
    990.316000
    990.802000
    991.289000
    991.775000
    992.262000
    992.749000
    993.235000
    993.722000
    994.208000
    994.695000
    995.182000
    995.668000
    996.155000
    996.642000
    997.129000
    997.616000
    998.103000
    998.589000
    999.076000
    999.563000
    1000.050000
    1000.537000
    1001.024000
    1001.511000
    1001.998000
    1002.486000
    1002.973000
    1003.460000
    1003.947000
    1004.434000
    1004.922000
    1005.409000
    1005.896000
    1006.384000
    1006.871000
    1007.358000
    1007.846000
    1008.333000
    1008.821000
    1009.308000
    1009.796000
    1010.283000
    1010.771000
    1011.258000
    1011.746000
    1012.234000
    1012.721000
    1013.209000
    1013.697000
    1014.185000
    1014.673000
    1015.160000
    1015.648000
    1016.136000
    1016.624000
    1017.112000
    1017.600000
    1018.088000
    1018.576000
    1019.064000
    1019.552000
    1020.040000
    1020.528000
    1021.017000
    1021.505000
    1021.993000
    1022.481000
    1022.970000
    1023.458000
    1023.946000
    1024.435000
    1024.923000
    1025.411000
    1025.900000
    1026.388000
    1026.877000
    1027.365000
    1027.854000
    1028.343000
    1028.831000
    1029.320000
    1029.808000
    1030.297000
    1030.786000
    1031.275000
    1031.763000
    1032.252000
    1032.741000
    1033.230000
    1033.719000
    1034.208000
    1034.697000
    1035.186000
    1035.675000
    1036.164000
    1036.653000
    1037.142000
    1037.631000
    1038.120000
    1038.609000
    1039.099000
    1039.588000
    1040.077000
    1040.566000
    1041.056000
    1041.545000
    1042.034000
    1042.524000
    1043.013000
    1043.503000
    1043.992000
    1044.482000
    1044.971000
    1045.461000
    1045.950000
    1046.440000
    1046.929000
    1047.419000
    1047.909000
    1048.399000
    1048.888000
    1049.378000
    1049.868000
    1050.358000
    1050.848000
    1051.338000
    1051.827000
    1052.317000
    1052.807000
    1053.297000
    1053.787000
    1054.277000
    1054.768000
    1055.258000
    1055.748000
    1056.238000
    1056.728000
    1057.218000
    1057.709000
    1058.199000
    1058.689000
    1059.180000
    1059.670000
    1060.160000
    1060.651000
    1061.141000
    1061.632000
    1062.122000
    1062.613000
    1063.103000
    1063.594000
    1064.084000
    1064.575000
    1065.066000
    1065.557000
    1066.047000
    1066.538000
    1067.029000
    1067.520000
    1068.010000
    1068.501000
    1068.992000
    1069.483000
    1069.974000
    1070.465000
    1070.956000
    1071.447000
    1071.938000
    1072.429000
    1072.920000
    1073.411000
    1073.903000
    1074.394000
    1074.885000
    1075.376000
    1075.868000
    1076.359000
    1076.850000
    1077.342000
    1077.833000
    1078.324000
    1078.816000
    1079.307000
    1079.799000
    1080.290000
    1080.782000
    1081.274000
    1081.765000
    1082.257000
    1082.748000
    1083.240000
    1083.732000
    1084.224000
    1084.715000
    1085.207000
    1085.699000
    1086.191000
    1086.683000
    1087.175000
    1087.667000
    1088.159000
    1088.651000
    1089.143000
    1089.635000
    1090.127000
    1090.619000
    1091.111000
    1091.603000
    1092.095000
    1092.588000
    1093.080000
    1093.572000
    1094.064000
    1094.557000
    1095.049000
    1095.542000
    1096.034000
    1096.526000
    1097.019000
    1097.511000
    1098.004000
    1098.497000
    1098.989000
    1099.482000
    1099.974000
    1100.467000
    1100.960000
    1101.452000
    1101.945000
    1102.438000
    1102.931000
    1103.424000
    1103.916000
    1104.409000
    1104.902000
    1105.395000
    1105.888000
    1106.381000
    1106.874000
    1107.367000
    1107.860000
    1108.354000
    1108.847000
    1109.340000
    1109.833000
    1110.326000
    1110.819000
    1111.313000
    1111.806000
    1112.299000
    1112.793000
    1113.286000
    1113.780000
    1114.273000
    1114.767000
    1115.260000
    1115.754000
    1116.247000
    1116.741000
    1117.234000
    1117.728000
    1118.222000
    1118.715000
    1119.209000
    1119.703000
    1120.197000
    1120.690000
    1121.184000
    1121.678000
    1122.172000
    1122.666000
    1123.160000
    ];

nom1024 = [0.016000
    -0.036000
    -0.106667
    -0.085333
    -0.090000
    -0.124667
    -0.186000
    -0.142667
    -0.104667
    -0.038667
    -0.062000
    -0.092667
    -0.131333
    -0.119333
    -0.082667
    -0.087333
    -0.122000
    -0.066000
    -0.029333
    0.044000
    -0.014000
    -0.106000
    -0.133333
    -0.084667
    -0.146000
    -0.125333
    -0.147333
    -0.051333
    -0.014667
    0.034000
    0.010667
    0.031333
    -0.032000
    -0.056000
    -0.080667
    -0.122667
    -0.158000
    -0.132667
    -0.114667
    -0.140667
    -0.152000
    -0.166000
    -0.107333
    -0.028000
    -0.062000
    -0.135333
    -0.109333
    -0.065333
    -0.058000
    -0.063333
    -0.178667
    -0.124000
    -0.066000
    -0.079333
    -0.121333
    -0.147333
    -0.140000
    -0.131333
    -0.223333
    -0.216667
    -0.204667
    -0.162667
    -0.186667
    -0.208000
    -0.125333
    -0.150667
    -0.194000
    -0.148667
    -0.157333
    -0.097333
    -0.079333
    -0.081333
    -0.000667
    -0.004667
    -0.029333
    -0.004000
    0.021333
    0.040000
    0.003333
    -0.035333
    -0.010000
    -0.012667
    -0.012000
    -0.072667
    -0.105333
    -0.120000
    -0.043333
    0.027333
    0.008667
    -0.040000
    0.029333
    0.018667
    0.030667
    -0.005333
    -0.037333
    0.001333
    0.073333
    0.050000
    0.098000
    0.042667
    0.012667
    -0.042667
    -0.032000
    -0.134667
    -0.218667
    -0.221333
    -0.164000
    -0.130000
    -0.182667
    -0.184667
    -0.163333
    -0.136000
    -0.198000
    -0.187333
    -0.196667
    -0.094000
    -0.124000
    -0.079333
    -0.044667
    -0.018667
    -0.076667
    -0.105333
    -0.114667
    -0.141333
    -0.120000
    -0.104000
    -0.088667
    -0.087333
    -0.038667
    -0.100667
    -0.117333
    -0.149333
    -0.168667
    -0.138000
    -0.083333
    -0.108000
    -0.013333
    0.026000
    0.001333
    0.008667
    -0.099333
    -0.135333
    -0.120667
    -0.190000
    -0.134000
    -0.140000
    -0.170667
    -0.117333
    -0.082667
    -0.119333
    -0.117333
    -0.112667
    -0.103333
    -0.074000
    -0.086667
    -0.091333
    -0.048667
    -0.022667
    -0.144000
    -0.136000
    -0.137333
    -0.123333
    -0.148667
    -0.140667
    -0.178000
    -0.092667
    -0.110000
    -0.152000
    -0.170667
    -0.126667
    -0.209333
    -0.192000
    -0.193333
    -0.173333
    -0.110667
    -0.086000
    -0.139333
    -0.078667
    -0.057333
    -0.108667
    -0.134000
    -0.206667
    -0.186667
    -0.133333
    -0.191333
    -0.208000
    -0.174000
    -0.108667
    -0.066667
    -0.064000
    -0.082000
    -0.006000
    0.008000
    -0.057333
    -0.080000
    -0.028667
    -0.021333
    -0.017333
    -0.030000
    -0.107333
    -0.016667
    -0.031333
    -0.056667
    -0.046000
    -0.117333
    -0.105333
    -0.090667
    -0.089333
    -0.098000
    -0.078000
    -0.165333
    -0.121333
    -0.114000
    -0.032000
    -0.037333
    -0.046667
    -0.051333
    -0.011333
    -0.050000
    -0.104000
    -0.125333
    -0.171333
    -0.121333
    -0.142000
    -0.104667
    -0.036000
    0.026000
    0.054000
    0.108000
    0.080667
    0.097333
    0.071333
    0.019333
    -0.008000
    -0.022667
    -0.024000
    -0.021333
    -0.051333
    -0.030667
    -0.029333
    -0.051333
    -0.080000
    -0.116667
    -0.087333
    -0.052667
    -0.028000
    0.006667
    0.027333
    0.069333
    0.097333
    0.044667
    0.019333
    -0.023333
    -0.010000
    0.042667
    0.033333
    0.017333
    0.029333
    0.042000
    0.038667
    -0.001333
    -0.029333
    -0.032667
    -0.011333
    0.034667
    0.025333
    0.056000
    0.102000
    0.084000
    0.083333
    0.089333
    0.060000
    0.106667
    0.121333
    0.128000
    0.155333
    0.145333
    0.112667
    0.096000
    0.040000
    0.058000
    0.053333
    -0.002000
    0.046667
    0.077333
    0.104667
    0.129333
    0.112000
    0.096667
    0.131333
    0.088667
    0.099333
    0.096667
    0.088000
    0.086667
    0.088000
    0.127333
    0.136667
    0.147333
    0.160667
    0.202667
    0.214667
    0.230000
    0.201333
    0.240000
    0.194000
    0.189333
    0.184667
    0.169333
    0.186000
    0.193333
    0.176667
    0.208667
    0.285333
    0.280667
    0.308000
    0.370667
    0.406667
    0.457333
    0.444667
    0.346000
    0.364000
    0.355333
    0.322000
    0.276000
    0.236000
    0.287333
    0.388000
    0.428000
    0.464667
    0.454667
    0.474667
    0.472667
    0.512667
    0.490000
    0.468000
    0.438667
    0.451333
    0.488000
    0.497333
    0.412000
    0.445333
    0.431333
    0.432000
    0.415333
    0.450000
    0.490000
    0.529333
    0.530000
    0.541333
    0.564000
    0.618000
    0.574000
    0.541333
    0.510667
    0.467333
    0.468667
    0.471333
    0.486000
    0.488000
    0.456667
    0.528000
    0.514000
    0.480667
    0.470667
    0.407333
    0.411333
    0.442000
    0.482000
    0.530000
    0.570000
    0.582000
    0.601333
    0.564667
    0.584667
    0.540667
    0.528667
    0.527333
    0.500667
    0.481333
    0.522000
    0.512667
    0.509333
    0.550000
    0.540667
    0.568000
    0.610000
    0.600000
    0.576667
    0.543333
    0.522000
    0.496000
    0.554667
    0.546667
    0.547333
    0.570000
    0.606667
    0.553333
    0.554000
    0.435333
    0.450000
    0.437333
    0.444667
    0.480667
    0.538000
    0.532667
    0.631333
    0.640000
    0.629333
    0.588667
    0.512000
    0.488000
    0.493333
    0.489333
    0.457333
    0.493333
    0.539333
    0.518000
    0.520000
    0.589333
    0.558000
    0.570667
    0.580000
    0.550667
    0.622000
    0.593333
    0.544667
    0.578667
    0.566000
    0.574000
    0.498667
    0.507333
    0.560000
    0.580667
    0.564667
    0.603333
    0.584000
    0.676000
    0.632000
    0.630000
    0.658000
    0.682000
    0.696667
    0.680667
    0.678667
    0.732667
    0.732667
    0.658000
    0.618000
    0.618000
    0.682667
    0.728000
    0.728000
    0.749333
    0.820000
    0.850667
    0.876000
    0.904000
    0.933333
    0.980667
    0.998667
    0.998000
    1.017333
    1.001333
    0.975333
    0.964000
    0.921333
    0.906000
    0.924667
    0.965333
    0.999333
    1.026000
    1.056000
    1.102000
    1.121333
    1.110667
    1.128000
    1.124667
    1.113333
    1.085333
    1.060000
    1.162000
    1.195333
    1.173333
    1.226667
    1.181333
    1.187333
    1.243333
    1.188000
    1.244667
    1.200667
    1.192667
    1.278000
    1.296667
    1.346000
    1.376667
    1.390667
    1.500000
    1.476667
    1.512667
    1.579333
    1.595333
    1.593333
    1.643333
    1.711333
    1.802000
    1.832667
    1.862667
    1.850667
    1.897333
    1.865333
    1.894000
    1.919333
    1.966000
    1.980000
    2.123333
    2.186000
    2.266667
    2.244000
    2.273333
    2.313333
    2.375333
    2.404667
    2.522667
    2.584000
    2.684000
    2.734667
    2.783333
    2.935333
    2.940000
    2.937333
    2.975333
    3.055333
    3.160667
    3.194000
    3.236667
    3.365333
    3.413333
    3.462667
    3.558000
    3.609333
    3.734000
    3.869333
    3.907333
    3.981333
    4.042667
    4.116000
    4.221333
    4.235333
    4.206667
    4.284667
    4.424667
    4.570667
    4.723333
    4.732667
    5.002667
    5.210000
    5.370000
    5.452667
    5.592667
    5.738000
    5.974667
    6.080000
    6.246667
    6.471333
    6.633333
    6.881333
    7.100000
    7.342667
    7.629333
    7.910000
    8.171333
    8.523333
    8.802667
    9.163333
    9.570667
    9.952000
    10.391333
    10.934000
    11.424000
    11.949333
    12.497333
    13.016000
    13.663333
    14.370000
    14.917333
    15.586667
    16.358667
    16.985333
    17.900000
    18.562000
    19.522667
    20.431333
    21.327333
    22.142667
    23.296000
    24.302667
    25.532000
    26.730667
    27.808667
    29.008667
    30.308000
    31.441333
    32.628000
    34.067333
    35.254000
    36.707333
    38.232000
    39.442000
    40.880667
    42.641333
    44.120000
    45.354000
    47.117333
    48.447333
    49.915333
    51.978000
    53.659333
    55.100000
    57.107333
    58.816000
    60.861333
    62.616000
    64.878000
    66.597333
    68.527333
    70.420667
    72.833333
    74.614000
    77.385333
    79.388000
    81.320000
    83.847333
    86.179333
    88.366000
    91.220667
    93.801333
    95.731333
    98.884667
    101.285333
    103.572000
    106.483333
    109.852667
    112.327333
    115.241333
    117.709333
    120.984667
    123.978667
    127.504667
    131.105333
    134.319333
    137.508667
    141.308667
    144.809333
    149.072000
    152.276667
    157.064667
    160.801333
    164.572667
    167.400667
    173.305333
    176.200667
    181.493333
    186.457333
    192.005333
    194.768000
    200.438000
    205.071333
    209.928000
    214.831333
    221.204667
    226.152667
    230.534667
    235.455333
    241.254000
    245.398000
    250.130667
    255.096667
    260.069333
    262.811333
    267.893333
    272.286000
    275.516667
    279.151333
    283.234667
    285.347333
    287.396000
    291.256667
    291.990000
    295.027333
    296.664000
    298.458000
    297.812667
    300.928667
    300.216667
    301.947333
    303.455333
    304.752000
    304.644000
    305.980667
    305.400667
    306.796667
    306.945333
    308.640000
    309.394000
    311.678667
    312.113333
    314.354000
    315.391333
    317.078000
    318.362667
    320.619333
    322.720667
    324.327333
    326.551333
    327.696667
    330.997333
    332.319333
    336.197333
    339.194000
    341.875333
    345.002000
    348.604667
    352.502667
    356.094667
    360.154000
    363.598667
    367.102000
    371.359333
    375.969333
    378.994667
    384.174000
    389.546000
    393.821333
    400.032000
    405.201333
    408.616667
    414.404667
    421.254000
    425.374667
    430.985333
    438.398667
    444.196667
    449.445333
    458.130000
    464.130000
    468.322000
    475.479333
    484.777333
    490.329333
    499.169333
    505.726000
    512.234000
    519.124000
    528.146000
    535.766000
    544.863333
    553.738000
    562.711333
    572.178000
    577.737333
    589.742667
    597.750000
    609.315333
    616.780000
    629.900000
    635.530667
    648.981333
    657.666000
    668.502667
    677.193333
    690.773333
    699.854000
    710.137333
    722.736000
    734.652667
    747.884667
    759.114000
    770.800000
    782.624667
    797.054000
    810.414667
    824.185333
    836.280000
    847.154000
    862.173333
    873.666667
    889.420667
    906.713333
    921.405333
    933.553333
    948.900667
    960.530000
    976.845333
    992.608667
    1009.700000
    1027.091333
    1042.763333
    1057.020667
    1074.864667
    1086.858000
    1103.712000
    1120.100000
    1139.598667
    1155.296667
    1174.530000
    1191.166667
    1207.921333
    1217.174667
    1235.042667
    1251.410000
    1266.703333
    1290.110000
    1302.609333
    1318.314000
    1333.156667
    1346.775333
    1360.708000
    1378.468000
    1385.586667
    1400.102000
    1409.338000
    1420.349333
    1437.010667
    1436.116667
    1444.369333
    1447.574000
    1449.596667
    1448.230667
    1455.392000
    1456.415333
    1448.228667
    1442.174000
    1434.161333
    1413.722000
    1400.600000
    1398.719333
    1370.557333
    1349.486667
    1320.726000
    1297.489333
    1268.897333
    1244.691333
    1215.069333
    1184.167333
    1146.752000
    1111.912000
    1075.631333
    1032.580667
    997.634667
    958.822667
    927.544667
    885.195333
    846.183333
    806.696667
    775.206000
    735.900000
    702.948667
    669.905333
    634.514667
    602.776000
    577.394000
    547.548667
    517.740000
    491.116000
    466.458000
    442.638667
    420.848667
    399.149333
    378.544667
    357.870000
    339.020667
    324.306667
    306.880000
    290.776000
    275.461333
    260.480667
    247.412667
    235.202667
    223.014667
    212.539333
    200.884667
    189.226667
    180.978667
    171.337333
    162.916667
    154.974667
    147.147333
    138.896667
    132.082000
    125.612667
    119.824000
    113.172000
    107.522667
    102.131333
    97.039333
    91.658667
    86.783333
    82.330667
    78.605333
    74.874000
    71.858000
    68.366667
    64.902000
    62.038000
    59.457333
    55.568000
    52.683333
    49.567333
    47.287333
    45.210667
    42.691333
    40.626000
    40.341333
    38.345333
    37.266000
    34.354667
    32.972667
    31.396000
    30.650000
    28.743333
    26.474667
    25.284667
    25.540000
    23.720000
    22.776000
    20.894667
    20.282000
    21.482667
    21.134000
    20.015333
    18.091333
    16.972000
    17.240667
    16.578667
    15.331333
    14.438000
    13.916667
    14.926000
    14.594000
    12.590667
    11.890000
    11.504000
    11.210667
    10.902667
    10.580667
    10.124000
    11.764667
    11.427333
    11.392000
    10.098667
    9.073333
    9.168667
    8.418000
    7.159333
    5.996000
    5.355333
    5.324000
    6.658667
    6.380000
    6.374000
    5.730667
    5.046000
    4.605333
    3.759333
    2.688000
    2.354667
    3.983333
    3.780000
    6.295333
    8.637333
    7.653333
    8.272667
    9.289333
    9.577333
    10.314667
    9.160000
    5.937333
    6.856667
    6.331333
    5.081333
    1.251333
    0.102000
    -1.191333
    1.924667
    2.666000
    1.668667
    -0.971333
    -0.466667
    0.087333
    1.680667
    0.241333
    -1.055333
    0.315333
    5.052667
    5.974667
    6.246667
    6.176000
    4.273333
    4.260000
    3.597333
    -0.496667
    -0.980000
    0.631333
    -0.200000
    1.031333
    2.166000
    1.081333
    5.161333
    5.796667
    2.292000
    5.882667
    7.668000
    8.824667
    9.437333
    7.620000
    9.926000
    12.442667
    7.220000
    4.852000
    0.916667
    1.752667
    0.000000
    -3.518000
    ];

if exist('wavel', 'var')    % if wavel is not defined, return it and nothing else
    spectrum = interp1(wavel_nom, nom1024, wavel, 'pchip', 0)*mArea;
    totPower = trapz(wavel, spectrum);
else
    spectrum = [];
    totPower = [];
end

end

