function [spectrum, totPower, wavel_nom] = marubeni_smc970( wavel )
% [spectrum, totPower, wavel_nom] = marubeni_smc970( wavel )
% Provides power density spectrum [mW/nm] of Marubeni SMC1020 LED.
%
% Inputs
% wavel - desired wavelengths (nm)
%
% Outputs
% spectrum - matrix containing power spectral density (uW/nm) of LED.
% Values are interpolated for the wavelengths provided in the input. Values outside
% the originally measured range are extrapolated to zero.
%
% totPower - irradiance integrated over wavel wavelengths (mW).
%
% wavel_nom - nominal wavelengths over which LED spectrum is experimentally
% measured (nm).
%
% See also
% PD_resp, solarIrr, getLed, fietje, fietje_1020, marubeni_smc1050
% BSX Proprietary

% Measured values originally available at
% \Google Drive\Tech_RD\Sensor\Development\Release to Market Product\LED_characterization\Marubeni SMC970
% Example:
% filen = dir('*.txt');
% [spectrum, wavel] = readOO({filen.name});
% Confirmed that all LEDs have readings at exactly the same wavelengths
% (from 632.364nm to 1123.16nm).

mArea = 1.19459060652752e-4; % = pi*(3900e-4/2)^2 * 1e-3;  Area of cosine corrector (cm^2) divided by 1000 to convert from uW to mW. Cosine corrector diameter = 3900um = 0.39cm

wavel_nom = [632.364000
    632.830000
    633.295000
    633.761000
    634.227000
    634.692000
    635.158000
    635.624000
    636.090000
    636.556000
    637.021000
    637.487000
    637.953000
    638.419000
    638.885000
    639.351000
    639.817000
    640.283000
    640.749000
    641.215000
    641.681000
    642.147000
    642.613000
    643.080000
    643.546000
    644.012000
    644.478000
    644.945000
    645.411000
    645.877000
    646.344000
    646.810000
    647.277000
    647.743000
    648.209000
    648.676000
    649.143000
    649.609000
    650.076000
    650.542000
    651.009000
    651.476000
    651.942000
    652.409000
    652.876000
    653.343000
    653.810000
    654.276000
    654.743000
    655.210000
    655.677000
    656.144000
    656.611000
    657.078000
    657.545000
    658.012000
    658.479000
    658.946000
    659.414000
    659.881000
    660.348000
    660.815000
    661.283000
    661.750000
    662.217000
    662.684000
    663.152000
    663.619000
    664.087000
    664.554000
    665.022000
    665.489000
    665.957000
    666.424000
    666.892000
    667.360000
    667.827000
    668.295000
    668.763000
    669.230000
    669.698000
    670.166000
    670.634000
    671.102000
    671.569000
    672.037000
    672.505000
    672.973000
    673.441000
    673.909000
    674.377000
    674.845000
    675.314000
    675.782000
    676.250000
    676.718000
    677.186000
    677.654000
    678.123000
    678.591000
    679.059000
    679.528000
    679.996000
    680.464000
    680.933000
    681.401000
    681.870000
    682.338000
    682.807000
    683.275000
    683.744000
    684.213000
    684.681000
    685.150000
    685.619000
    686.088000
    686.556000
    687.025000
    687.494000
    687.963000
    688.432000
    688.901000
    689.369000
    689.838000
    690.307000
    690.776000
    691.245000
    691.715000
    692.184000
    692.653000
    693.122000
    693.591000
    694.060000
    694.530000
    694.999000
    695.468000
    695.937000
    696.407000
    696.876000
    697.346000
    697.815000
    698.285000
    698.754000
    699.224000
    699.693000
    700.163000
    700.632000
    701.102000
    701.572000
    702.041000
    702.511000
    702.981000
    703.450000
    703.920000
    704.390000
    704.860000
    705.330000
    705.800000
    706.270000
    706.740000
    707.210000
    707.680000
    708.150000
    708.620000
    709.090000
    709.560000
    710.030000
    710.500000
    710.970000
    711.441000
    711.911000
    712.381000
    712.852000
    713.322000
    713.792000
    714.263000
    714.733000
    715.204000
    715.674000
    716.145000
    716.615000
    717.086000
    717.556000
    718.027000
    718.498000
    718.968000
    719.439000
    719.910000
    720.381000
    720.851000
    721.322000
    721.793000
    722.264000
    722.735000
    723.206000
    723.677000
    724.148000
    724.619000
    725.090000
    725.561000
    726.032000
    726.503000
    726.974000
    727.445000
    727.917000
    728.388000
    728.859000
    729.330000
    729.802000
    730.273000
    730.744000
    731.216000
    731.687000
    732.159000
    732.630000
    733.102000
    733.573000
    734.045000
    734.516000
    734.988000
    735.460000
    735.931000
    736.403000
    736.875000
    737.347000
    737.818000
    738.290000
    738.762000
    739.234000
    739.706000
    740.178000
    740.650000
    741.122000
    741.594000
    742.066000
    742.538000
    743.010000
    743.482000
    743.954000
    744.426000
    744.899000
    745.371000
    745.843000
    746.315000
    746.788000
    747.260000
    747.733000
    748.205000
    748.677000
    749.150000
    749.622000
    750.095000
    750.567000
    751.040000
    751.513000
    751.985000
    752.458000
    752.930000
    753.403000
    753.876000
    754.349000
    754.822000
    755.294000
    755.767000
    756.240000
    756.713000
    757.186000
    757.659000
    758.132000
    758.605000
    759.078000
    759.551000
    760.024000
    760.497000
    760.970000
    761.444000
    761.917000
    762.390000
    762.863000
    763.337000
    763.810000
    764.283000
    764.757000
    765.230000
    765.703000
    766.177000
    766.650000
    767.124000
    767.597000
    768.071000
    768.545000
    769.018000
    769.492000
    769.966000
    770.439000
    770.913000
    771.387000
    771.861000
    772.334000
    772.808000
    773.282000
    773.756000
    774.230000
    774.704000
    775.178000
    775.652000
    776.126000
    776.600000
    777.074000
    777.548000
    778.022000
    778.497000
    778.971000
    779.445000
    779.919000
    780.394000
    780.868000
    781.342000
    781.817000
    782.291000
    782.765000
    783.240000
    783.714000
    784.189000
    784.663000
    785.138000
    785.613000
    786.087000
    786.562000
    787.037000
    787.511000
    787.986000
    788.461000
    788.936000
    789.410000
    789.885000
    790.360000
    790.835000
    791.310000
    791.785000
    792.260000
    792.735000
    793.210000
    793.685000
    794.160000
    794.635000
    795.110000
    795.586000
    796.061000
    796.536000
    797.011000
    797.487000
    797.962000
    798.437000
    798.913000
    799.388000
    799.863000
    800.339000
    800.814000
    801.290000
    801.765000
    802.241000
    802.717000
    803.192000
    803.668000
    804.144000
    804.619000
    805.095000
    805.571000
    806.047000
    806.522000
    806.998000
    807.474000
    807.950000
    808.426000
    808.902000
    809.378000
    809.854000
    810.330000
    810.806000
    811.282000
    811.758000
    812.234000
    812.711000
    813.187000
    813.663000
    814.139000
    814.616000
    815.092000
    815.568000
    816.045000
    816.521000
    816.997000
    817.474000
    817.950000
    818.427000
    818.903000
    819.380000
    819.857000
    820.333000
    820.810000
    821.287000
    821.763000
    822.240000
    822.717000
    823.194000
    823.670000
    824.147000
    824.624000
    825.101000
    825.578000
    826.055000
    826.532000
    827.009000
    827.486000
    827.963000
    828.440000
    828.917000
    829.394000
    829.872000
    830.349000
    830.826000
    831.303000
    831.781000
    832.258000
    832.735000
    833.213000
    833.690000
    834.167000
    834.645000
    835.122000
    835.600000
    836.077000
    836.555000
    837.033000
    837.510000
    837.988000
    838.466000
    838.943000
    839.421000
    839.899000
    840.377000
    840.854000
    841.332000
    841.810000
    842.288000
    842.766000
    843.244000
    843.722000
    844.200000
    844.678000
    845.156000
    845.634000
    846.112000
    846.590000
    847.068000
    847.547000
    848.025000
    848.503000
    848.981000
    849.460000
    849.938000
    850.417000
    850.895000
    851.373000
    851.852000
    852.330000
    852.809000
    853.287000
    853.766000
    854.244000
    854.723000
    855.202000
    855.680000
    856.159000
    856.638000
    857.117000
    857.595000
    858.074000
    858.553000
    859.032000
    859.511000
    859.990000
    860.469000
    860.948000
    861.427000
    861.906000
    862.385000
    862.864000
    863.343000
    863.822000
    864.301000
    864.781000
    865.260000
    865.739000
    866.218000
    866.698000
    867.177000
    867.656000
    868.136000
    868.615000
    869.095000
    869.574000
    870.054000
    870.533000
    871.013000
    871.492000
    871.972000
    872.452000
    872.931000
    873.411000
    873.891000
    874.371000
    874.850000
    875.330000
    875.810000
    876.290000
    876.770000
    877.250000
    877.730000
    878.210000
    878.690000
    879.170000
    879.650000
    880.130000
    880.610000
    881.090000
    881.570000
    882.051000
    882.531000
    883.011000
    883.491000
    883.972000
    884.452000
    884.932000
    885.413000
    885.893000
    886.374000
    886.854000
    887.335000
    887.815000
    888.296000
    888.776000
    889.257000
    889.738000
    890.218000
    890.699000
    891.180000
    891.660000
    892.141000
    892.622000
    893.103000
    893.584000
    894.065000
    894.546000
    895.027000
    895.508000
    895.989000
    896.470000
    896.951000
    897.432000
    897.913000
    898.394000
    898.875000
    899.356000
    899.838000
    900.319000
    900.800000
    901.281000
    901.763000
    902.244000
    902.726000
    903.207000
    903.688000
    904.170000
    904.651000
    905.133000
    905.615000
    906.096000
    906.578000
    907.059000
    907.541000
    908.023000
    908.505000
    908.986000
    909.468000
    909.950000
    910.432000
    910.914000
    911.396000
    911.877000
    912.359000
    912.841000
    913.323000
    913.805000
    914.287000
    914.770000
    915.252000
    915.734000
    916.216000
    916.698000
    917.180000
    917.663000
    918.145000
    918.627000
    919.110000
    919.592000
    920.074000
    920.557000
    921.039000
    921.522000
    922.004000
    922.487000
    922.969000
    923.452000
    923.935000
    924.417000
    924.900000
    925.383000
    925.865000
    926.348000
    926.831000
    927.314000
    927.797000
    928.279000
    928.762000
    929.245000
    929.728000
    930.211000
    930.694000
    931.177000
    931.660000
    932.143000
    932.627000
    933.110000
    933.593000
    934.076000
    934.559000
    935.043000
    935.526000
    936.009000
    936.492000
    936.976000
    937.459000
    937.943000
    938.426000
    938.910000
    939.393000
    939.877000
    940.360000
    940.844000
    941.327000
    941.811000
    942.295000
    942.778000
    943.262000
    943.746000
    944.230000
    944.714000
    945.197000
    945.681000
    946.165000
    946.649000
    947.133000
    947.617000
    948.101000
    948.585000
    949.069000
    949.553000
    950.037000
    950.521000
    951.006000
    951.490000
    951.974000
    952.458000
    952.943000
    953.427000
    953.911000
    954.396000
    954.880000
    955.364000
    955.849000
    956.333000
    956.818000
    957.302000
    957.787000
    958.272000
    958.756000
    959.241000
    959.726000
    960.210000
    960.695000
    961.180000
    961.665000
    962.149000
    962.634000
    963.119000
    963.604000
    964.089000
    964.574000
    965.059000
    965.544000
    966.029000
    966.514000
    966.999000
    967.484000
    967.969000
    968.454000
    968.940000
    969.425000
    969.910000
    970.395000
    970.881000
    971.366000
    971.851000
    972.337000
    972.822000
    973.308000
    973.793000
    974.279000
    974.764000
    975.250000
    975.735000
    976.221000
    976.707000
    977.192000
    977.678000
    978.164000
    978.650000
    979.135000
    979.621000
    980.107000
    980.593000
    981.079000
    981.565000
    982.051000
    982.537000
    983.023000
    983.509000
    983.995000
    984.481000
    984.967000
    985.453000
    985.939000
    986.425000
    986.912000
    987.398000
    987.884000
    988.370000
    988.857000
    989.343000
    989.830000
    990.316000
    990.802000
    991.289000
    991.775000
    992.262000
    992.749000
    993.235000
    993.722000
    994.208000
    994.695000
    995.182000
    995.668000
    996.155000
    996.642000
    997.129000
    997.616000
    998.103000
    998.589000
    999.076000
    999.563000
    1000.050000
    1000.537000
    1001.024000
    1001.511000
    1001.998000
    1002.486000
    1002.973000
    1003.460000
    1003.947000
    1004.434000
    1004.922000
    1005.409000
    1005.896000
    1006.384000
    1006.871000
    1007.358000
    1007.846000
    1008.333000
    1008.821000
    1009.308000
    1009.796000
    1010.283000
    1010.771000
    1011.258000
    1011.746000
    1012.234000
    1012.721000
    1013.209000
    1013.697000
    1014.185000
    1014.673000
    1015.160000
    1015.648000
    1016.136000
    1016.624000
    1017.112000
    1017.600000
    1018.088000
    1018.576000
    1019.064000
    1019.552000
    1020.040000
    1020.528000
    1021.017000
    1021.505000
    1021.993000
    1022.481000
    1022.970000
    1023.458000
    1023.946000
    1024.435000
    1024.923000
    1025.411000
    1025.900000
    1026.388000
    1026.877000
    1027.365000
    1027.854000
    1028.343000
    1028.831000
    1029.320000
    1029.808000
    1030.297000
    1030.786000
    1031.275000
    1031.763000
    1032.252000
    1032.741000
    1033.230000
    1033.719000
    1034.208000
    1034.697000
    1035.186000
    1035.675000
    1036.164000
    1036.653000
    1037.142000
    1037.631000
    1038.120000
    1038.609000
    1039.099000
    1039.588000
    1040.077000
    1040.566000
    1041.056000
    1041.545000
    1042.034000
    1042.524000
    1043.013000
    1043.503000
    1043.992000
    1044.482000
    1044.971000
    1045.461000
    1045.950000
    1046.440000
    1046.929000
    1047.419000
    1047.909000
    1048.399000
    1048.888000
    1049.378000
    1049.868000
    1050.358000
    1050.848000
    1051.338000
    1051.827000
    1052.317000
    1052.807000
    1053.297000
    1053.787000
    1054.277000
    1054.768000
    1055.258000
    1055.748000
    1056.238000
    1056.728000
    1057.218000
    1057.709000
    1058.199000
    1058.689000
    1059.180000
    1059.670000
    1060.160000
    1060.651000
    1061.141000
    1061.632000
    1062.122000
    1062.613000
    1063.103000
    1063.594000
    1064.084000
    1064.575000
    1065.066000
    1065.557000
    1066.047000
    1066.538000
    1067.029000
    1067.520000
    1068.010000
    1068.501000
    1068.992000
    1069.483000
    1069.974000
    1070.465000
    1070.956000
    1071.447000
    1071.938000
    1072.429000
    1072.920000
    1073.411000
    1073.903000
    1074.394000
    1074.885000
    1075.376000
    1075.868000
    1076.359000
    1076.850000
    1077.342000
    1077.833000
    1078.324000
    1078.816000
    1079.307000
    1079.799000
    1080.290000
    1080.782000
    1081.274000
    1081.765000
    1082.257000
    1082.748000
    1083.240000
    1083.732000
    1084.224000
    1084.715000
    1085.207000
    1085.699000
    1086.191000
    1086.683000
    1087.175000
    1087.667000
    1088.159000
    1088.651000
    1089.143000
    1089.635000
    1090.127000
    1090.619000
    1091.111000
    1091.603000
    1092.095000
    1092.588000
    1093.080000
    1093.572000
    1094.064000
    1094.557000
    1095.049000
    1095.542000
    1096.034000
    1096.526000
    1097.019000
    1097.511000
    1098.004000
    1098.497000
    1098.989000
    1099.482000
    1099.974000
    1100.467000
    1100.960000
    1101.452000
    1101.945000
    1102.438000
    1102.931000
    1103.424000
    1103.916000
    1104.409000
    1104.902000
    1105.395000
    1105.888000
    1106.381000
    1106.874000
    1107.367000
    1107.860000
    1108.354000
    1108.847000
    1109.340000
    1109.833000
    1110.326000
    1110.819000
    1111.313000
    1111.806000
    1112.299000
    1112.793000
    1113.286000
    1113.780000
    1114.273000
    1114.767000
    1115.260000
    1115.754000
    1116.247000
    1116.741000
    1117.234000
    1117.728000
    1118.222000
    1118.715000
    1119.209000
    1119.703000
    1120.197000
    1120.690000
    1121.184000
    1121.678000
    1122.172000
    1122.666000
    1123.160000
    ];

nom1024 = [-0.080000
-0.040000
-0.223333
-0.168333
-0.306667
-0.371667
-0.471667
-0.360000
-0.490000
-0.403333
-0.523333
-0.485000
-0.598333
-0.466667
-0.523333
-0.498333
-0.366667
-0.301667
-0.243333
-0.096667
-0.241667
-0.165000
-0.143333
-0.241667
-0.125000
-0.145000
-0.141667
-0.100000
-0.180000
-0.110000
-0.200000
-0.338333
-0.308333
-0.446667
-0.418333
-0.360000
-0.388333
-0.308333
-0.311667
-0.286667
-0.123333
-0.295000
-0.270000
-0.216667
-0.238333
-0.195000
-0.336667
-0.333333
-0.155000
-0.225000
-0.436667
-0.375000
-0.401667
-0.376667
-0.450000
-0.445000
-0.403333
-0.218333
-0.265000
-0.150000
-0.143333
-0.135000
-0.101667
-0.161667
-0.088333
-0.110000
-0.263333
-0.116667
-0.068333
-0.115000
-0.050000
-0.171667
-0.080000
-0.021667
-0.171667
-0.250000
-0.248333
-0.213333
-0.205000
-0.231667
-0.208333
-0.086667
0.031667
0.006667
-0.093333
-0.156667
-0.085000
-0.081667
-0.193333
-0.198333
-0.220000
-0.176667
-0.010000
-0.110000
-0.131667
-0.016667
-0.016667
0.103333
0.081667
0.043333
0.025000
0.060000
0.043333
-0.016667
-0.195000
-0.066667
-0.033333
-0.013333
-0.160000
-0.160000
-0.100000
-0.018333
-0.155000
-0.236667
-0.273333
-0.131667
-0.108333
-0.213333
-0.215000
-0.183333
-0.245000
-0.150000
-0.138333
-0.155000
-0.073333
-0.141667
-0.240000
-0.235000
-0.183333
-0.286667
-0.406667
-0.411667
-0.255000
-0.240000
-0.151667
-0.233333
-0.228333
-0.178333
-0.226667
-0.271667
-0.228333
-0.233333
-0.265000
-0.295000
-0.176667
-0.225000
-0.331667
-0.240000
-0.303333
-0.245000
-0.108333
-0.166667
-0.096667
0.071667
0.036667
0.058333
0.038333
-0.030000
-0.106667
-0.103333
-0.193333
-0.130000
-0.118333
-0.068333
-0.121667
0.020000
-0.018333
-0.108333
-0.215000
-0.155000
-0.273333
-0.166667
-0.180000
-0.120000
-0.048333
-0.001667
-0.115000
-0.058333
0.038333
-0.043333
-0.036667
-0.170000
-0.205000
-0.256667
-0.230000
-0.426667
-0.440000
-0.373333
-0.276667
-0.215000
-0.120000
-0.146667
-0.001667
-0.056667
-0.136667
-0.028333
-0.031667
0.021667
-0.020000
-0.131667
-0.028333
-0.060000
-0.098333
-0.098333
-0.053333
-0.013333
-0.013333
0.000000
-0.005000
-0.023333
-0.051667
-0.115000
-0.071667
-0.020000
-0.035000
-0.031667
0.048333
0.090000
0.001667
-0.028333
-0.045000
-0.020000
-0.013333
-0.051667
-0.055000
0.065000
0.115000
0.138333
0.138333
0.060000
0.003333
-0.010000
-0.125000
-0.090000
-0.106667
-0.153333
-0.100000
-0.073333
-0.090000
0.010000
-0.175000
-0.181667
-0.235000
-0.178333
-0.141667
-0.143333
0.040000
0.136667
0.196667
0.278333
0.240000
0.290000
0.363333
0.136667
0.173333
0.103333
0.133333
0.168333
0.083333
0.018333
0.063333
-0.003333
-0.036667
-0.060000
-0.010000
-0.023333
0.046667
-0.010000
0.073333
0.083333
0.093333
0.083333
0.096667
0.136667
0.193333
0.093333
0.096667
0.066667
-0.063333
-0.143333
-0.236667
-0.293333
-0.293333
-0.186667
-0.206667
-0.110000
-0.010000
-0.023333
-0.110000
-0.108333
-0.135000
-0.073333
-0.103333
-0.156667
-0.163333
-0.045000
0.048333
0.005000
-0.023333
-0.038333
0.033333
0.100000
0.003333
-0.051667
-0.028333
-0.071667
-0.098333
-0.175000
-0.216667
-0.090000
-0.143333
-0.228333
-0.196667
-0.120000
-0.063333
-0.058333
-0.075000
-0.036667
0.131667
0.078333
-0.043333
-0.041667
0.003333
0.060000
0.050000
-0.151667
-0.015000
0.065000
0.065000
-0.038333
-0.063333
-0.078333
0.121667
0.010000
0.056667
-0.008333
-0.013333
-0.046667
0.086667
-0.033333
-0.031667
-0.041667
-0.050000
-0.036667
-0.020000
-0.101667
-0.068333
-0.063333
-0.050000
0.041667
0.083333
0.071667
0.080000
0.113333
0.075000
0.016667
-0.008333
-0.008333
-0.005000
0.038333
-0.033333
0.018333
0.018333
-0.083333
-0.025000
-0.056667
-0.196667
-0.206667
-0.118333
0.011667
0.128333
0.105000
0.093333
0.185000
0.186667
0.133333
-0.023333
-0.013333
-0.071667
-0.105000
-0.060000
0.021667
0.000000
0.066667
0.080000
0.141667
0.245000
0.175000
0.140000
0.141667
0.258333
0.225000
0.293333
0.321667
0.358333
0.413333
0.411667
0.180000
0.151667
0.058333
0.101667
0.138333
0.078333
0.125000
0.236667
0.396667
0.411667
0.310000
0.281667
0.365000
0.325000
0.298333
0.240000
0.235000
0.238333
0.255000
0.283333
0.325000
0.376667
0.365000
0.450000
0.541667
0.600000
0.553333
0.673333
0.761667
0.780000
0.728333
0.718333
0.720000
0.810000
0.820000
0.785000
0.823333
0.925000
0.966667
0.985000
0.976667
0.996667
1.051667
1.078333
1.055000
1.008333
1.015000
0.988333
0.828333
0.835000
0.778333
0.671667
0.665000
0.721667
0.713333
0.786667
0.840000
0.728333
0.715000
0.791667
0.693333
0.681667
0.698333
0.671667
0.811667
0.945000
0.943333
1.026667
1.035000
1.031667
0.960000
1.020000
1.000000
1.043333
0.956667
0.981667
1.020000
1.013333
0.848333
0.803333
0.763333
0.805000
0.826667
0.845000
0.908333
1.020000
1.155000
1.108333
1.091667
1.003333
0.985000
0.973333
1.010000
0.890000
0.916667
0.888333
0.908333
0.956667
0.996667
0.898333
0.966667
0.951667
0.941667
0.941667
0.916667
0.748333
0.758333
0.793333
0.795000
0.770000
0.880000
0.826667
0.965000
1.003333
1.060000
1.046667
1.221667
1.211667
1.323333
1.328333
1.310000
1.211667
1.340000
1.345000
1.360000
1.370000
1.435000
1.666667
1.795000
1.790000
1.805000
1.763333
1.808333
1.881667
1.786667
1.813333
2.028333
2.140000
2.356667
2.396667
2.496667
2.641667
2.811667
2.763333
2.873333
2.866667
3.078333
3.320000
3.406667
3.455000
3.498333
3.560000
3.850000
4.010000
4.153333
4.411667
4.725000
5.153333
5.495000
5.790000
6.038333
6.201667
6.446667
6.621667
6.765000
7.143333
7.525000
7.981667
8.225000
8.761667
9.296667
9.850000
10.166667
10.583333
11.101667
11.773333
12.205000
12.761667
13.455000
14.151667
14.866667
15.506667
16.213333
17.016667
17.998333
18.785000
19.631667
20.646667
21.623333
22.661667
23.910000
24.678333
26.105000
27.481667
29.036667
30.355000
31.868333
33.096667
34.903333
36.336667
38.073333
39.920000
41.885000
43.823333
45.726667
47.661667
49.726667
52.245000
54.396667
56.746667
59.460000
62.240000
65.180000
68.410000
71.120000
73.585000
77.290000
80.151667
83.245000
87.385000
91.426667
95.225000
99.830000
103.805000
108.608333
112.848333
118.378333
122.973333
127.876667
133.018333
139.606667
145.130000
152.563333
158.525000
164.463333
171.895000
179.013333
185.620000
193.860000
201.966667
208.990000
218.890000
227.298333
235.716667
245.655000
256.710000
265.545000
275.583333
284.443333
295.160000
305.431667
317.230000
329.251667
340.798333
351.891667
364.636667
376.766667
390.670000
401.066667
415.988333
427.735000
439.833333
449.526667
467.258333
476.663333
492.695000
507.376667
523.123333
530.951667
545.543333
557.501667
569.858333
582.228333
598.478333
611.026667
622.460000
635.370000
650.058333
660.285000
672.100000
684.368333
696.868333
702.768333
715.461667
726.928333
735.793333
746.096667
757.865000
764.158333
770.820000
782.750000
786.198333
795.426667
801.736667
808.638333
808.935000
819.371667
819.048333
825.141667
831.305000
835.601667
835.935000
839.621667
837.701667
840.611667
839.543333
841.511667
840.405000
842.631667
839.531667
840.035000
836.720000
834.488333
830.486667
828.586667
825.426667
820.340000
816.271667
808.506667
805.665000
796.668333
793.130000
786.715000
779.183333
772.211667
766.033333
759.661667
753.156667
747.115000
739.173333
730.761667
723.391667
716.105000
705.681667
698.208333
690.633333
680.821667
674.000000
664.788333
652.655000
644.016667
636.460000
624.846667
615.056667
607.610000
597.445000
586.545000
579.860000
569.225000
556.755000
547.661667
540.871667
529.838333
522.336667
512.258333
502.583333
492.858333
485.398333
475.951667
467.651667
459.038333
450.660000
442.363333
431.193333
424.895000
415.448333
409.041667
399.766667
393.550000
382.660000
376.616667
367.928333
360.866667
351.788333
345.610000
337.720000
330.291667
324.250000
317.456667
310.883333
304.368333
297.613333
290.681667
285.046667
279.053333
273.260000
267.355000
260.531667
255.355000
249.023333
243.865000
239.521667
233.478333
227.235000
222.746667
217.008333
212.288333
207.946667
202.718333
199.060000
194.783333
189.643333
185.598333
180.600000
176.343333
172.960000
169.425000
165.015000
162.126667
159.065000
156.005000
151.820000
148.348333
144.538333
141.081667
138.216667
133.860000
130.553333
127.335000
124.125000
121.636667
118.928333
115.505000
113.723333
110.958333
108.326667
107.070000
104.088333
102.095000
99.385000
96.520000
94.210000
93.011667
90.445000
88.445000
86.518333
84.825000
82.205000
81.155000
80.470000
78.241667
75.738333
74.450000
73.393333
71.805000
69.906667
68.431667
67.625000
66.605000
64.256667
62.950000
61.541667
59.775000
57.900000
56.386667
55.123333
54.665000
52.291667
51.356667
50.301667
49.408333
49.306667
48.633333
47.691667
47.723333
46.520000
45.386667
45.220000
42.488333
40.520000
38.855000
37.068333
36.443333
35.826667
34.288333
34.158333
33.250000
32.166667
33.190000
33.206667
32.793333
31.863333
31.475000
30.868333
30.541667
29.306667
27.996667
27.176667
26.505000
26.565000
25.271667
24.238333
23.505000
23.008333
23.935000
23.856667
22.205000
23.055000
23.903333
22.445000
21.753333
18.321667
17.518333
19.438333
17.743333
15.136667
15.326667
14.830000
15.298333
13.713333
12.325000
13.123333
15.865000
15.431667
14.300000
12.840000
13.401667
12.685000
9.686667
7.973333
7.266667
7.751667
9.558333
9.228333
8.506667
11.256667
11.980000
10.916667
10.493333
10.213333
12.808333
11.931667
12.956667
11.571667
14.986667
17.015000
14.928333
12.703333
16.043333
14.550000
15.535000
12.938333
9.625000
9.495000
10.333333
7.965000
9.405000
9.541667
12.455000
13.300000
14.145000
12.625000
12.560000
10.418333
6.395000
3.768333
6.701667
9.223333
9.721667
10.695000
8.213333
10.486667
8.925000
3.410000
4.111667
2.683333
1.496667
10.315000
12.233333
11.676667
10.951667
7.053333
6.265000
7.075000
-3.275000
-6.316667
-4.408333
3.231667
3.118333
1.738333
-0.963333
3.416667
6.076667
7.823333
4.061667
7.371667
10.751667
14.248333
16.596667
15.311667
14.195000
13.090000
8.051667
8.910000
8.658333
4.875000
4.151667
4.400000
5.678333
12.123333
16.025000
14.763333
12.398333
14.733333
7.656667
6.671667
4.508333
-0.458333
3.000000
5.183333
0.476667
10.161667
7.350000
12.950000
9.578333
5.100000
5.946667
10.525000
7.726667
4.053333
-6.066667
-5.878333
-4.248333
-7.161667
-11.120000
-17.046667
-10.655000
    ];

if exist('wavel', 'var')    % if wavel is not defined, return it and nothing else
    spectrum = interp1(wavel_nom, nom1024, wavel, 'pchip', 0)*mArea;
    totPower = trapz(wavel, spectrum);
else
    spectrum = [];
    totPower = [];
end

end

