function [collagen, water] = collagenSpectrum(wavelength)
% Provides absorption spectra of collagen and water at specified
% wavelengths.
% Uses cubic interpolation for wavelengths in the range from
% 768.9nm to 1546.97nm. Uses linear interpolation (and extrapolation) when ANY
% of the input wavelengths is outside this range.
%
% Col 1: Wavelength in (nm) converted from wavenumber (cm^-1) so they are
% strange values and sorted highest to lowest
% Col 2: A mixture of collagen I,II,II,& IV (Actually an average of the
% individual spectra, there may be significant scattering in the cuvette
% due to solids)
% Col 3: A mixture of water at a few temperatures at and above body
% temperature 
% I'm not sure about the units on these, I used them as "shapes", but the
% water and collagen should be the same units (probably simply 1/cm)
%
% Inputs
% wavelength - wavelength of light (nm)
%
% Outputs
% collagen - PROBABLY molar attenuation coefficients (aka molar extinction coefficient, or molar absorptivity), in units of L / (mole . cm). ))
% (could also be in units of L / (mmole. cm) )
% water - water absorption coefficient (1/cm)
%
% See also
% prahlhb, WaterHaleQuerrySpectra

% wavelength, collagen, water
Data = [1546.975611	2.75576e-006	4.90773e-006; ...
1543.292336	2.82316e-006	5.11511e-006; ...
1539.626558	2.92321e-006	5.33573e-006; ...
1535.978154	3.04408e-006	5.57014e-006; ...
1532.347000	3.17036e-006	5.81886e-006; ...
1528.732974	3.2868e-006	6.08255e-006; ...
1525.135955	3.38373e-006	6.36192e-006; ...
1521.555824	3.46059e-006	6.65761e-006; ...
1517.992461	3.52227e-006	6.97026e-006; ...
1514.445750	3.57383e-006	7.30042e-006; ...
1510.915573	3.61859e-006	7.64856e-006; ...
1507.401816	3.65791e-006	8.01514e-006; ...
1503.904364	3.69088e-006	8.40055e-006; ...
1500.423104	3.71456e-006	8.80493e-006; ...
1496.957924	3.72527e-006	9.22839e-006; ...
1493.508712	3.7195e-006	9.67105e-006; ...
1490.075359	3.69444e-006	1.01327e-005; ...
1486.657754	3.64987e-006	1.06125e-005; ...
1483.255792	3.59055e-006	1.11094e-005; ...
1479.869363	3.52607e-006	1.16213e-005; ...
1476.498362	3.46818e-006	1.21443e-005; ...
1473.142684	3.42563e-006	1.267e-005; ...
1469.802224	3.39874e-006	1.31838e-005; ...
1466.476880	3.37945e-006	1.36624e-005; ...
1463.166548	3.35848e-006	1.40744e-005; ...
1459.871128	3.33152e-006	1.43937e-005; ...
1456.590519	3.2987e-006	1.46164e-005; ...
1453.324621	3.26157e-006	1.47616e-005; ...
1450.073335	3.22176e-006	1.48566e-005; ...
1446.836565	3.18002e-006	1.49188e-005; ...
1443.614211	3.13476e-006	1.49488e-005; ...
1440.406180	3.0832e-006	1.49377e-005; ...
1437.212375	3.02362e-006	1.48734e-005; ...
1434.032701	2.95504e-006	1.4743e-005; ...
1430.867066	2.87584e-006	1.45382e-005; ...
1427.715377	2.78398e-006	1.42544e-005; ...
1424.577541	2.67831e-006	1.38898e-005; ...
1421.453467	2.55863e-006	1.34424e-005; ...
1418.343066	2.42428e-006	1.29073e-005; ...
1415.246247	2.27524e-006	1.22781e-005; ...
1412.162921	2.11457e-006	1.15484e-005; ...
1409.093002	1.94975e-006	1.07165e-005; ...
1406.036401	1.79269e-006	9.79262e-006; ...
1402.993032	1.65731e-006	8.80492e-006; ...
1399.962810	1.55217e-006	7.79148e-006; ...
1396.945649	1.47309e-006	6.79379e-006; ...
1393.941464	1.4051e-006	5.85234e-006; ...
1390.950174	1.334e-006	5.00444e-006; ...
1387.971694	1.25537e-006	4.27286e-006; ...
1385.005942	1.17176e-006	3.66358e-006; ...
1382.052838	1.08361e-006	3.17069e-006; ...
1379.112300	9.87824e-007	2.78376e-006; ...
1376.184248	8.85881e-007	2.48721e-006; ...
1373.268604	7.86851e-007	2.26061e-006; ...
1370.365287	7.00716e-007	2.08628e-006; ...
1367.474221	6.31741e-007	1.95115e-006; ...
1364.595328	5.77087e-007	1.84498e-006; ...
1361.728531	5.30536e-007	1.75887e-006; ...
1358.873755	4.86236e-007	1.68627e-006; ...
1356.030923	4.40028e-007	1.62199e-006; ...
1353.199960	3.91236e-007	1.56171e-006; ...
1350.380794	3.42418e-007	1.50265e-006; ...
1347.573349	2.96097e-007	1.44299e-006; ...
1344.777554	2.53675e-007	1.38187e-006; ...
1341.993335	2.16272e-007	1.3192e-006; ...
1339.220622	1.84531e-007	1.25546e-006; ...
1336.459342	1.57977e-007	1.1915e-006; ...
1333.709426	1.3534e-007	1.12832e-006; ...
1330.970803	1.1589e-007	1.06691e-006; ...
1328.243404	9.96408e-008	1.00811e-006; ...
1325.527159	8.66296e-008	9.52517e-007; ...
1322.822002	7.71953e-008	9.00522e-007; ...
1320.127863	7.18107e-008	8.52347e-007; ...
1317.444677	6.9724e-008	8.08114e-007; ...
1314.772375	6.88987e-008	7.67838e-007; ...
1312.110893	6.76482e-008	7.3139e-007; ...
1309.460164	6.56484e-008	6.98564e-007; ...
1306.820123	6.35534e-008	6.69126e-007; ...
1304.190706	6.25354e-008	6.42786e-007; ...
1301.571849	6.38433e-008	6.19249e-007; ...
1298.963489	6.7921e-008	5.98259e-007; ...
1296.365562	7.44094e-008	5.79565e-007; ...
1293.778006	8.31803e-008	5.62934e-007; ...
1291.200759	9.44321e-008	5.48177e-007; ...
1288.633759	1.07441e-007	5.35155e-007; ...
1286.076946	1.20231e-007	5.23763e-007; ...
1283.530259	1.31253e-007	5.13885e-007; ...
1280.993638	1.40287e-007	5.05416e-007; ...
1278.467024	1.47596e-007	4.98273e-007; ...
1275.950356	1.53711e-007	4.92374e-007; ...
1273.443578	1.59594e-007	4.87648e-007; ...
1270.946629	1.6578e-007	4.84037e-007; ...
1268.459454	1.71885e-007	4.81473e-007; ...
1265.981994	1.77361e-007	4.79881e-007; ...
1263.514193	1.81971e-007	4.79184e-007; ...
1261.055994	1.85665e-007	4.79285e-007; ...
1258.607342	1.88993e-007	4.80098e-007; ...
1256.168180	1.9332e-007	4.81554e-007; ...
1253.738454	2.00094e-007	4.83585e-007; ...
1251.318110	2.10083e-007	4.86109e-007; ...
1248.907092	2.23468e-007	4.89039e-007; ...
1246.505348	2.40147e-007	4.92305e-007; ...
1244.112823	2.59401e-007	4.95845e-007; ...
1241.729465	2.80217e-007	4.99581e-007; ...
1239.355222	3.02438e-007	5.03446e-007; ...
1236.990040	3.26931e-007	5.0741e-007; ...
1234.633868	3.54444e-007	5.1146e-007; ...
1232.286656	3.84842e-007	5.15546e-007; ...
1229.948351	4.17533e-007	5.19622e-007; ...
1227.618903	4.51975e-007	5.23679e-007; ...
1225.298263	4.87933e-007	5.27726e-007; ...
1222.986379	5.25434e-007	5.31781e-007; ...
1220.683203	5.63909e-007	5.35853e-007; ...
1218.388686	6.01312e-007	5.39947e-007; ...
1216.102779	6.348e-007	5.4408e-007; ...
1213.825433	6.62719e-007	5.48242e-007; ...
1211.556600	6.85316e-007	5.5241e-007; ...
1209.296233	7.03529e-007	5.56572e-007; ...
1207.044285	7.18532e-007	5.60694e-007; ...
1204.800708	7.32069e-007	5.64698e-007; ...
1202.565456	7.4577e-007	5.68471e-007; ...
1200.338483	7.60411e-007	5.71855e-007; ...
1198.119743	7.7602e-007	5.74667e-007; ...
1195.909190	7.91954e-007	5.76729e-007; ...
1193.706779	8.07025e-007	5.77883e-007; ...
1191.512465	8.19764e-007	5.78086e-007; ...
1189.326204	8.28139e-007	5.77464e-007; ...
1187.147950	8.29403e-007	5.7629e-007; ...
1184.977662	8.21466e-007	5.74923e-007; ...
1182.815294	8.05045e-007	5.73681e-007; ...
1180.660803	7.8388e-007	5.72782e-007; ...
1178.514147	7.62185e-007	5.72331e-007; ...
1176.375283	7.41498e-007	5.7231e-007; ...
1174.244168	7.201e-007	5.72614e-007; ...
1172.120761	6.95365e-007	5.73094e-007; ...
1170.005020	6.66046e-007	5.73554e-007; ...
1167.896903	6.32667e-007	5.73758e-007; ...
1165.796369	5.96647e-007	5.73438e-007; ...
1163.703377	5.59101e-007	5.7228e-007; ...
1161.617887	5.20776e-007	5.69859e-007; ...
1159.539859	4.8323e-007	5.65593e-007; ...
1157.469252	4.4879e-007	5.58694e-007; ...
1155.406027	4.1885e-007	5.48173e-007; ...
1153.350144	3.93162e-007	5.32954e-007; ...
1151.301565	3.70768e-007	5.12114e-007; ...
1149.260250	3.50675e-007	4.85263e-007; ...
1147.226161	3.32066e-007	4.52916e-007; ...
1145.199260	3.14503e-007	4.16537e-007; ...
1143.179508	2.97669e-007	3.78117e-007; ...
1141.166868	2.80939e-007	3.39598e-007; ...
1139.161302	2.63831e-007	3.026e-007; ...
1137.162774	2.46655e-007	2.68466e-007; ...
1135.171245	2.3025e-007	2.38239e-007; ...
1133.186680	2.153e-007	2.12575e-007; ...
1131.209042	2.02233e-007	1.91589e-007; ...
1129.238294	1.91624e-007	1.74853e-007; ...
1127.274402	1.84081e-007	1.61684e-007; ...
1125.317328	1.79337e-007	1.51339e-007; ...
1123.367038	1.76295e-007	1.43145e-007; ...
1121.423496	1.7448e-007	1.36571e-007; ...
1119.486668	1.74298e-007	1.312e-007; ...
1117.556519	1.75928e-007	1.26693e-007; ...
1115.633014	1.79039e-007	1.22778e-007; ...
1113.716118	1.8308e-007	1.19258e-007; ...
1111.805799	1.87315e-007	1.16003e-007; ...
1109.902022	1.91287e-007	1.12925e-007; ...
1108.004754	1.95272e-007	1.09944e-007; ...
1106.113961	1.99898e-007	1.07017e-007; ...
1104.229610	2.05323e-007	1.04156e-007; ...
1102.351668	2.11128e-007	1.01368e-007; ...
1100.480103	2.17034e-007	9.86428e-008; ...
1098.614883	2.23121e-007	9.5987e-008; ...
1096.755975	2.29447e-007	9.34238e-008; ...
1094.903346	2.35835e-007	9.0975e-008; ...
1093.056966	2.4215e-007	8.86491e-008; ...
1091.216803	2.48413e-007	8.64656e-008; ...
1089.382825	2.54537e-007	8.44499e-008; ...
1087.555002	2.60629e-007	8.25982e-008; ...
1085.733301	2.67309e-007	8.0894e-008; ...
1083.917694	2.75006e-007	7.93619e-008; ...
1082.108149	2.8351e-007	7.80465e-008; ...
1080.304635	2.9233e-007	7.69396e-008; ...
1078.507123	3.01063e-007	7.59964e-008; ...
1076.715583	3.09615e-007	7.52006e-008; ...
1074.929985	3.18128e-007	7.45618e-008; ...
1073.150300	3.26816e-007	7.40903e-008; ...
1071.376497	3.35838e-007	7.38028e-008; ...
1069.608549	3.45091e-007	7.37019e-008; ...
1067.846427	3.54365e-007	7.3753e-008; ...
1066.090100	3.63638e-007	7.39338e-008; ...
1064.339542	3.72945e-007	7.42721e-008; ...
1062.594723	3.82321e-007	7.47742e-008; ...
1060.855615	3.91953e-007	7.5404e-008; ...
1059.122191	4.01969e-007	7.61663e-008; ...
1057.394422	4.12286e-007	7.70868e-008; ...
1055.672282	4.22815e-007	7.81631e-008; ...
1053.955741	4.33557e-007	7.93916e-008; ...
1052.244774	4.44366e-007	8.07825e-008; ...
1050.539353	4.54916e-007	8.23536e-008; ...
1048.839451	4.65192e-007	8.40989e-008; ...
1047.145042	4.75609e-007	8.59934e-008; ...
1045.456098	4.86336e-007	8.80306e-008; ...
1043.772594	4.97146e-007	9.02179e-008; ...
1042.094503	5.07782e-007	9.25596e-008; ...
1040.421799	5.17873e-007	9.50537e-008; ...
1038.754457	5.26976e-007	9.77005e-008; ...
1037.092450	5.35101e-007	1.00503e-007; ...
1035.435752	5.42847e-007	1.03459e-007; ...
1033.784340	5.50675e-007	1.06566e-007; ...
1032.138186	5.58424e-007	1.09814e-007; ...
1030.497267	5.66031e-007	1.13195e-007; ...
1028.861557	5.73898e-007	1.16705e-007; ...
1027.231032	5.82171e-007	1.20335e-007; ...
1025.605666	5.90622e-007	1.24072e-007; ...
1023.985436	5.99144e-007	1.27918e-007; ...
1022.370317	6.07648e-007	1.31875e-007; ...
1020.760285	6.15868e-007	1.35924e-007; ...
1019.155316	6.2346e-007	1.4005e-007; ...
1017.555386	6.30022e-007	1.44251e-007; ...
1015.960472	6.35468e-007	1.48519e-007; ...
1014.370549	6.40248e-007	1.52836e-007; ...
1012.785595	6.44932e-007	1.57172e-007; ...
1011.205587	6.49891e-007	1.61502e-007; ...
1009.630500	6.54903e-007	1.65842e-007; ...
1008.060313	6.5943e-007	1.702e-007; ...
1006.495001	6.6355e-007	1.74548e-007; ...
1004.934544	6.67458e-007	1.7887e-007; ...
1003.378918	6.70866e-007	1.83163e-007; ...
1001.828100	6.73961e-007	1.87421e-007; ...
1000.282069	6.77613e-007	1.91644e-007; ...
998.740803	6.82242e-007	1.95825e-007; ...
997.204278	6.87598e-007	1.9993e-007; ...
995.672475	6.93368e-007	2.03945e-007; ...
994.145370	6.99127e-007	2.07873e-007; ...
992.622942	7.04387e-007	2.11717e-007; ...
991.105170	7.09056e-007	2.15471e-007; ...
989.592032	7.13346e-007	2.19109e-007; ...
988.083508	7.17474e-007	2.22582e-007; ...
986.579575	7.21563e-007	2.25851e-007; ...
985.080214	7.25711e-007	2.28898e-007; ...
983.585404	7.2987e-007	2.31725e-007; ...
982.095123	7.33593e-007	2.34315e-007; ...
980.609351	7.36659e-007	2.36614e-007; ...
979.128068	7.39557e-007	2.38566e-007; ...
977.651253	7.4272e-007	2.40148e-007; ...
976.178887	7.4603e-007	2.41347e-007; ...
974.710949	7.49479e-007	2.4216e-007; ...
973.247419	7.53268e-007	2.42613e-007; ...
971.788277	7.56913e-007	2.42761e-007; ...
970.333504	7.59663e-007	2.42662e-007; ...
968.883081	7.61952e-007	2.42339e-007; ...
967.436987	7.64763e-007	2.41753e-007; ...
965.995203	7.6795e-007	2.40796e-007; ...
964.557710	7.70726e-007	2.39331e-007; ...
963.124489	7.73076e-007	2.37174e-007; ...
961.695521	7.75547e-007	2.34045e-007; ...
960.270787	7.78282e-007	2.29618e-007; ...
958.850268	7.81106e-007	2.23586e-007; ...
957.433945	7.8403e-007	2.1577e-007; ...
956.021801	7.8706e-007	2.06215e-007; ...
954.613816	7.90134e-007	1.95256e-007; ...
953.209972	7.93492e-007	1.83533e-007; ...
951.810251	7.9728e-007	1.71791e-007; ...
950.414635	8.01165e-007	1.60622e-007; ...
949.023105	8.05232e-007	1.50378e-007; ...
947.635645	8.10189e-007	1.41197e-007; ...
946.252235	8.15956e-007	1.33044e-007; ...
944.872859	8.21397e-007	1.2578e-007; ...
943.497498	8.25995e-007	1.19235e-007; ...
942.126135	8.30345e-007	1.13254e-007; ...
940.758753	8.34968e-007	1.07707e-007; ...
939.395335	8.40094e-007	1.02493e-007; ...
938.035862	8.46008e-007	9.75577e-008; ...
936.680319	8.52448e-007	9.28799e-008; ...
935.328688	8.58571e-007	8.84297e-008; ...
933.980952	8.64097e-007	8.41855e-008; ...
932.637095	8.69609e-007	8.01455e-008; ...
931.297099	8.75342e-007	7.63192e-008; ...
929.960948	8.80735e-007	7.27351e-008; ...
928.628626	8.85775e-007	6.94198e-008; ...
927.300116	8.91319e-007	6.63742e-008; ...
925.975401	8.97645e-007	6.35834e-008; ...
924.654466	9.04349e-007	6.10417e-008; ...
923.337295	9.11493e-007	5.87478e-008; ...
922.023870	9.19664e-007	5.66847e-008; ...
920.714178	9.29627e-007	5.48448e-008; ...
919.408200	9.42217e-007	5.32424e-008; ...
918.105922	9.57604e-007	5.18654e-008; ...
916.807328	9.74589e-007	5.06713e-008; ...
915.512402	9.91112e-007	4.96272e-008; ...
914.221130	1.00554e-006	4.87047e-008; ...
912.933494	1.01709e-006	4.78745e-008; ...
911.649481	1.0256e-006	4.71235e-008; ...
910.369074	1.0318e-006	4.64502e-008; ...
909.092259	1.03696e-006	4.58548e-008; ...
907.819021	1.04152e-006	4.53281e-008; ...
906.549344	1.04529e-006	4.48452e-008; ...
905.283214	1.04875e-006	4.43816e-008; ...
904.020615	1.05257e-006	4.39387e-008; ...
902.761533	1.05632e-006	4.35418e-008; ...
901.505954	1.05953e-006	4.32049e-008; ...
900.253862	1.06277e-006	4.29003e-008; ...
899.005244	1.06661e-006	4.25968e-008; ...
897.760084	1.07061e-006	4.22923e-008; ...
896.518369	1.0742e-006	4.19957e-008; ...
895.280084	1.0774e-006	4.17272e-008; ...
894.045215	1.08031e-006	4.14855e-008; ...
892.813748	1.08298e-006	4.12323e-008; ...
891.585668	1.08609e-006	4.09626e-008; ...
890.360963	1.09045e-006	4.0704e-008; ...
889.139617	1.09562e-006	4.04439e-008; ...
887.921618	1.10048e-006	4.01609e-008; ...
886.706951	1.10507e-006	3.98755e-008; ...
885.495602	1.10987e-006	3.9615e-008; ...
884.287559	1.1149e-006	3.93671e-008; ...
883.082808	1.12034e-006	3.91028e-008; ...
881.881335	1.12615e-006	3.88269e-008; ...
880.683126	1.13167e-006	3.85649e-008; ...
879.488170	1.1369e-006	3.83306e-008; ...
878.296451	1.14257e-006	3.81162e-008; ...
877.107958	1.14908e-006	3.79068e-008; ...
875.922677	1.15612e-006	3.77024e-008; ...
874.740595	1.16305e-006	3.75021e-008; ...
873.561699	1.16962e-006	3.7311e-008; ...
872.385977	1.17583e-006	3.71391e-008; ...
871.213415	1.18185e-006	3.6994e-008; ...
870.044001	1.18855e-006	3.68844e-008; ...
868.877722	1.19649e-006	3.6781e-008; ...
867.714566	1.20491e-006	3.66579e-008; ...
866.554520	1.21324e-006	3.65485e-008; ...
865.397571	1.22182e-006	3.6464e-008; ...
864.243708	1.23042e-006	3.63782e-008; ...
863.092917	1.23839e-006	3.63054e-008; ...
861.945187	1.24583e-006	3.62655e-008; ...
860.800506	1.25375e-006	3.62454e-008; ...
859.658861	1.26254e-006	3.62367e-008; ...
858.520240	1.27166e-006	3.62366e-008; ...
857.384631	1.28121e-006	3.62421e-008; ...
856.252022	1.29163e-006	3.62533e-008; ...
855.122402	1.30233e-006	3.62608e-008; ...
853.995759	1.31292e-006	3.62601e-008; ...
852.872080	1.32389e-006	3.62642e-008; ...
851.751355	1.33535e-006	3.6267e-008; ...
850.633571	1.34702e-006	3.62583e-008; ...
849.518717	1.35902e-006	3.62514e-008; ...
848.406781	1.37133e-006	3.62526e-008; ...
847.297753	1.38349e-006	3.62657e-008; ...
846.191620	1.39526e-006	3.62996e-008; ...
845.088372	1.40694e-006	3.6351e-008; ...
843.987996	1.41885e-006	3.64103e-008; ...
842.890482	1.43077e-006	3.64791e-008; ...
841.795819	1.44269e-006	3.65672e-008; ...
840.703996	1.45506e-006	3.66583e-008; ...
839.615001	1.46738e-006	3.6732e-008; ...
838.528824	1.47885e-006	3.68039e-008; ...
837.445453	1.49014e-006	3.68896e-008; ...
836.364879	1.50227e-006	3.69594e-008; ...
835.287089	1.51526e-006	3.69717e-008; ...
834.212073	1.52894e-006	3.69324e-008; ...
833.139821	1.54303e-006	3.68781e-008; ...
832.070322	1.55658e-006	3.68077e-008; ...
831.003565	1.56894e-006	3.66983e-008; ...
829.939540	1.58112e-006	3.6574e-008; ...
828.878237	1.59435e-006	3.64838e-008; ...
827.819644	1.60819e-006	3.64712e-008; ...
826.763751	1.62191e-006	3.65969e-008; ...
825.710549	1.63577e-006	3.69262e-008; ...
824.660027	1.64987e-006	3.7488e-008; ...
823.612174	1.66384e-006	3.82805e-008; ...
822.566981	1.6777e-006	3.93166e-008; ...
821.524437	1.69187e-006	4.06007e-008; ...
820.484533	1.70672e-006	4.20544e-008; ...
819.447258	1.72208e-006	4.35394e-008; ...
818.412602	1.73778e-006	4.4932e-008; ...
817.380556	1.75359e-006	4.61475e-008; ...
816.351110	1.76856e-006	4.71492e-008; ...
815.324253	1.78276e-006	4.79466e-008; ...
814.299976	1.79764e-006	4.85805e-008; ...
813.278270	1.81355e-006	4.90967e-008; ...
812.259124	1.82923e-006	4.95482e-008; ...
811.242529	1.84408e-006	4.99655e-008; ...
810.228476	1.85871e-006	5.03618e-008; ...
809.216955	1.87312e-006	5.07818e-008; ...
808.207956	1.88742e-006	5.12409e-008; ...
807.201471	1.9028e-006	5.17108e-008; ...
806.197489	1.91907e-006	5.2182e-008; ...
805.196001	1.93473e-006	5.26519e-008; ...
804.196999	1.9496e-006	5.31052e-008; ...
803.200472	1.96456e-006	5.35493e-008; ...
802.206412	1.9803e-006	5.40106e-008; ...
801.214810	1.99653e-006	5.45089e-008; ...
800.225656	2.01255e-006	5.50308e-008; ...
799.238941	2.02847e-006	5.5547e-008; ...
798.254656	2.04487e-006	5.6058e-008; ...
797.272793	2.06152e-006	5.6572e-008; ...
796.293343	2.07773e-006	5.70781e-008; ...
795.316296	2.09292e-006	5.75482e-008; ...
794.341643	2.10711e-006	5.7988e-008; ...
793.369377	2.12171e-006	5.84458e-008; ...
792.399488	2.1378e-006	5.8935e-008; ...
791.431967	2.15455e-006	5.94256e-008; ...
790.466806	2.17114e-006	5.98921e-008; ...
789.503996	2.18764e-006	6.03308e-008; ...
788.543529	2.20357e-006	6.07411e-008; ...
787.585396	2.21875e-006	6.11425e-008; ...
786.629589	2.23456e-006	6.15784e-008; ...
785.676098	2.2518e-006	6.20175e-008; ...
784.724916	2.26887e-006	6.24025e-008; ...
783.776035	2.28426e-006	6.27535e-008; ...
782.829446	2.29894e-006	6.31046e-008; ...
781.885140	2.31394e-006	6.34605e-008; ...
780.943110	2.32847e-006	6.38126e-008; ...
780.003347	2.34221e-006	6.4162e-008; ...
779.065843	2.35659e-006	6.44881e-008; ...
778.130589	2.3726e-006	6.4749e-008; ...
777.197579	2.38926e-006	6.49777e-008; ...
776.266804	2.4052e-006	6.52523e-008; ...
775.338255	2.42027e-006	6.55835e-008; ...
774.411925	2.43504e-006	6.58925e-008; ...
773.487805	2.44978e-006	6.6138e-008; ...
772.565889	2.4644e-006	6.6358e-008; ...
771.646168	2.47868e-006	6.6572e-008; ...
770.728634	2.49319e-006	6.67663e-008; ...
769.813279	2.50918e-006	6.69286e-008; ...
768.900096	2.52638e-006	6.70656e-008; ];

K = 1.861762573069263e+06;  % conversion factor (one that brings the water absorption coefficient to 1/cm)
wl = Data(:,1);
collagen_data = K * Data(:,2);
water_data = K * Data(:,3);

if any(wavelength < wl(end)) || any(wavelength > wl(1))
    warning('Wavelength out of bounds. Extrapolating.')
    method = 'linear';  % linear method extrapolates better
else
    method = 'pchip';   % interpolates better
end

water = interp1(wl, water_data, wavelength, method, 'extrap');
collagen = interp1(wl, collagen_data, wavelength, method, 'extrap');

